4/20/2018 9:53 AM
#3	Dark
Area (mm2) :	10.00

V (V)	J_source(mA/cm2)	I_PD (A)	Luminascence (cd/m2)	EQE (%)	PE (lm/W)	
-5.000E-1	-6.342E-6	1.190E-13	7.158E-3	-3.181E+1	7.091E+2
-4.500E-1	-2.270E-8	7.200E-14	4.331E-3	-5.378E+3	1.332E+5
-4.000E-1	-6.062E-9	6.100E-14	3.669E-3	-1.706E+4	4.754E+5
-3.500E-1	6.014E-7	-1.300E-13	-7.819E-3	-3.665E+2	1.167E+4
-3.000E-1	2.678E-6	2.000E-14	1.203E-3	1.266E+1	-4.704E+2
-2.500E-1	-3.091E-7	1.630E-13	9.804E-3	-8.942E+2	3.986E+4
-2.000E-1	6.528E-7	2.270E-13	1.365E-2	5.896E+2	-3.285E+4
-1.500E-1	7.209E-8	2.660E-13	1.600E-2	6.257E+3	-4.649E+5
-1.000E-1	1.227E-6	2.640E-13	1.588E-2	3.650E+2	-4.067E+4
-5.000E-2	-1.105E-6	1.810E-13	1.089E-2	-2.777E+2	6.190E+4
0.000E+0	1.274E-6	6.740E-13	4.054E-2	8.967E+2	Inf
5.000E-2	1.506E-6	3.540E-13	2.129E-2	3.986E+2	8.885E+4
1.000E-1	1.471E-6	-2.500E-14	-1.504E-3	-2.882E+1	-3.211E+3
1.500E-1	1.146E-6	1.830E-13	1.101E-2	2.707E+2	2.011E+4
2.000E-1	-6.716E-7	-9.000E-14	-5.413E-3	2.272E+2	1.266E+4
2.500E-1	1.411E-6	7.800E-14	4.692E-3	9.373E+1	4.178E+3
3.000E-1	1.594E-6	1.440E-13	8.662E-3	1.532E+2	5.692E+3
3.500E-1	1.003E-6	7.900E-14	4.752E-3	1.335E+2	4.252E+3
4.000E-1	1.385E-6	1.350E-13	8.120E-3	1.653E+2	4.605E+3
4.500E-1	2.375E-6	1.180E-13	7.098E-3	8.425E+1	2.086E+3
5.000E-1	1.687E-6	1.110E-13	6.677E-3	1.115E+2	2.486E+3
5.500E-1	1.288E-6	1.380E-13	8.301E-3	1.817E+2	3.683E+3
6.000E-1	1.758E-6	1.430E-13	8.601E-3	1.379E+2	2.561E+3
6.500E-1	1.872E-6	1.850E-13	1.113E-2	1.675E+2	2.873E+3
7.000E-1	1.126E-6	1.910E-13	1.149E-2	2.877E+2	4.580E+3
7.500E-1	1.150E-6	1.920E-13	1.155E-2	2.831E+2	4.207E+3
8.000E-1	2.341E-6	2.040E-13	1.227E-2	1.478E+2	2.059E+3
8.500E-1	2.056E-6	2.030E-13	1.221E-2	1.674E+2	2.195E+3
9.000E-1	2.273E-6	2.240E-13	1.347E-2	1.671E+2	2.069E+3
9.500E-1	3.298E-6	2.200E-13	1.323E-2	1.131E+2	1.327E+3
1.000E+0	2.458E-6	1.750E-13	1.053E-2	1.207E+2	1.346E+3
1.050E+0	3.347E-6	1.810E-13	1.089E-2	9.170E+1	9.733E+2
1.100E+0	2.469E-6	3.210E-13	1.931E-2	2.204E+2	2.233E+3
1.150E+0	3.334E-6	1.740E-13	1.047E-2	8.849E+1	8.575E+2
1.200E+0	3.420E-6	1.950E-13	1.173E-2	9.668E+1	8.979E+2
1.250E+0	2.935E-6	1.790E-13	1.077E-2	1.034E+2	9.220E+2
1.300E+0	2.347E-6	9.800E-14	5.895E-3	7.079E+1	6.069E+2
1.350E+0	2.800E-6	7.100E-14	4.271E-3	4.300E+1	3.550E+2
1.400E+0	4.208E-6	3.900E-14	2.346E-3	1.572E+1	1.251E+2
1.450E+0	4.491E-6	2.420E-13	1.456E-2	9.137E+1	7.023E+2
1.500E+0	5.305E-6	2.550E-13	1.534E-2	8.151E+1	6.056E+2
1.550E+0	3.840E-6	1.980E-13	1.191E-2	8.742E+1	6.286E+2
1.600E+0	5.902E-6	1.510E-13	9.083E-3	4.338E+1	3.022E+2
1.650E+0	4.627E-6	1.760E-13	1.059E-2	6.450E+1	4.356E+2
1.700E+0	6.358E-6	1.830E-13	1.101E-2	4.880E+1	3.199E+2
1.750E+0	6.757E-6	1.780E-13	1.071E-2	4.467E+1	2.845E+2
1.800E+0	5.927E-6	1.830E-13	1.101E-2	5.235E+1	3.241E+2
1.850E+0	7.326E-6	1.930E-13	1.161E-2	4.467E+1	2.691E+2
1.900E+0	7.248E-6	1.800E-13	1.083E-2	4.211E+1	2.470E+2
1.950E+0	9.926E-6	1.400E-13	8.421E-3	2.392E+1	1.367E+2
2.000E+0	1.214E-5	2.030E-13	1.221E-2	2.836E+1	1.580E+2
2.050E+0	2.022E-5	2.710E-13	1.630E-2	2.273E+1	1.236E+2
2.100E+0	4.228E-5	2.650E-13	1.594E-2	1.063E+1	5.640E+1
2.150E+0	8.982E-5	1.010E-13	6.075E-3	1.907E+0	9.883E+0
2.200E+0	2.054E-4	1.290E-13	7.759E-3	1.065E+0	5.393E+0
2.250E+0	5.193E-4	1.950E-13	1.173E-2	6.367E-1	3.154E+0
2.300E+0	1.366E-3	2.680E-13	1.612E-2	3.327E-1	1.612E+0
2.350E+0	3.513E-3	4.340E-13	2.611E-2	2.095E-1	9.935E-1
2.400E+0	8.352E-3	9.370E-13	5.636E-2	1.902E-1	8.834E-1
2.450E+0	1.776E-2	2.910E-12	1.750E-1	2.779E-1	1.264E+0
2.500E+0	3.444E-2	7.190E-12	4.325E-1	3.540E-1	1.578E+0
2.550E+0	5.830E-2	1.594E-11	9.588E-1	4.636E-1	2.026E+0
2.600E+0	9.054E-2	3.240E-11	1.949E+0	6.068E-1	2.601E+0
2.650E+0	1.316E-1	5.790E-11	3.483E+0	7.458E-1	3.136E+0
2.700E+0	1.814E-1	9.560E-11	5.750E+0	8.938E-1	3.689E+0
2.750E+0	2.416E-1	1.518E-10	9.131E+0	1.065E+0	4.318E+0
2.800E+0	3.125E-1	2.430E-10	1.462E+1	1.318E+0	5.247E+0
2.850E+0	3.980E-1	3.550E-10	2.135E+1	1.512E+0	5.914E+0
2.900E+0	4.963E-1	5.100E-10	3.068E+1	1.743E+0	6.697E+0
2.950E+0	6.109E-1	7.190E-10	4.325E+1	1.996E+0	7.539E+0
3.000E+0	7.448E-1	1.002E-9	6.027E+1	2.281E+0	8.475E+0
3.050E+0	8.983E-1	1.372E-9	8.253E+1	2.590E+0	9.463E+0
3.100E+0	1.079E+0	1.898E-9	1.142E+2	2.983E+0	1.072E+1
3.150E+0	1.280E+0	2.560E-9	1.540E+2	3.392E+0	1.200E+1
3.200E+0	1.514E+0	3.360E-9	2.021E+2	3.763E+0	1.311E+1
3.250E+0	1.773E+0	4.360E-9	2.623E+2	4.169E+0	1.430E+1
3.300E+0	2.065E+0	5.590E-9	3.362E+2	4.589E+0	1.550E+1
3.350E+0	2.394E+0	7.090E-9	4.265E+2	5.022E+0	1.671E+1
3.400E+0	2.761E+0	8.900E-9	5.353E+2	5.466E+0	1.792E+1
3.450E+0	3.173E+0	1.108E-8	6.665E+2	5.921E+0	1.913E+1
3.500E+0	3.628E+0	1.363E-8	8.198E+2	6.370E+0	2.028E+1
3.550E+0	4.133E+0	1.661E-8	9.991E+2	6.814E+0	2.139E+1
3.600E+0	4.692E+0	2.080E-8	1.251E+3	7.517E+0	2.327E+1
3.650E+0	5.369E+0	2.470E-8	1.486E+3	7.800E+0	2.382E+1
3.700E+0	6.055E+0	2.930E-8	1.762E+3	8.204E+0	2.471E+1
3.750E+0	6.805E+0	3.420E-8	2.057E+3	8.521E+0	2.532E+1
3.800E+0	7.625E+0	3.980E-8	2.394E+3	8.850E+0	2.596E+1
3.850E+0	8.523E+0	4.600E-8	2.767E+3	9.152E+0	2.649E+1
3.900E+0	9.503E+0	5.270E-8	3.170E+3	9.403E+0	2.687E+1
3.950E+0	1.068E+1	6.070E-8	3.651E+3	9.639E+0	2.720E+1
4.000E+0	1.183E+1	6.870E-8	4.132E+3	9.844E+0	2.743E+1
4.050E+0	1.310E+1	7.720E-8	4.644E+3	9.993E+0	2.750E+1
4.100E+0	1.447E+1	8.630E-8	5.191E+3	1.011E+1	2.748E+1
4.150E+0	1.596E+1	9.600E-8	5.774E+3	1.020E+1	2.738E+1
4.200E+0	1.759E+1	1.064E-7	6.400E+3	1.026E+1	2.722E+1
4.250E+0	1.934E+1	1.172E-7	7.050E+3	1.028E+1	2.695E+1
4.300E+0	2.123E+1	1.285E-7	7.729E+3	1.026E+1	2.660E+1
4.350E+0	2.327E+1	1.403E-7	8.439E+3	1.022E+1	2.620E+1
4.400E+0	2.548E+1	1.526E-7	9.179E+3	1.016E+1	2.572E+1
4.450E+0	2.784E+1	1.652E-7	9.937E+3	1.006E+1	2.519E+1
4.500E+0	3.039E+1	1.781E-7	1.071E+4	9.936E+0	2.461E+1
4.550E+0	3.313E+1	1.914E-7	1.151E+4	9.796E+0	2.399E+1
4.600E+0	3.608E+1	2.050E-7	1.233E+4	9.635E+0	2.334E+1
4.650E+0	3.955E+1	2.190E-7	1.317E+4	9.390E+0	2.250E+1
4.700E+0	4.294E+1	2.330E-7	1.401E+4	9.200E+0	2.181E+1
4.750E+0	4.661E+1	2.470E-7	1.486E+4	8.986E+0	2.108E+1
4.800E+0	5.055E+1	2.620E-7	1.576E+4	8.789E+0	2.041E+1
4.850E+0	5.479E+1	2.770E-7	1.666E+4	8.572E+0	1.970E+1
4.900E+0	5.941E+1	2.920E-7	1.756E+4	8.334E+0	1.896E+1
4.950E+0	6.437E+1	3.080E-7	1.853E+4	8.114E+0	1.827E+1
5.000E+0	6.975E+1	3.240E-7	1.949E+4	7.876E+0	1.756E+1
5.050E+0	7.560E+1	3.410E-7	2.051E+4	7.648E+0	1.688E+1
5.100E+0	8.197E+1	3.590E-7	2.159E+4	7.426E+0	1.623E+1
5.150E+0	8.896E+1	3.780E-7	2.274E+4	7.205E+0	1.559E+1
5.200E+0	9.656E+1	3.990E-7	2.400E+4	7.006E+0	1.502E+1
5.250E+0	1.078E+2	4.220E-7	2.538E+4	6.639E+0	1.409E+1
5.300E+0	1.170E+2	4.480E-7	2.695E+4	6.495E+0	1.366E+1
5.350E+0	1.272E+2	4.750E-7	2.857E+4	6.330E+0	1.319E+1
5.400E+0	1.385E+2	5.050E-7	3.038E+4	6.181E+0	1.276E+1
5.450E+0	1.510E+2	5.350E-7	3.218E+4	6.009E+0	1.229E+1
5.500E+0	1.646E+2	5.690E-7	3.423E+4	5.860E+0	1.187E+1
5.550E+0	1.797E+2	6.050E-7	3.639E+4	5.707E+0	1.146E+1
5.600E+0	1.965E+2	6.440E-7	3.874E+4	5.558E+0	1.106E+1
5.650E+0	2.149E+2	6.840E-7	4.114E+4	5.398E+0	1.065E+1
5.700E+0	2.352E+2	7.270E-7	4.373E+4	5.241E+0	1.025E+1
5.750E+0	2.577E+2	7.720E-7	4.644E+4	5.080E+0	9.845E+0
5.800E+0	2.827E+2	8.190E-7	4.926E+4	4.912E+0	9.437E+0
5.850E+0	3.107E+2	8.670E-7	5.215E+4	4.732E+0	9.014E+0
5.900E+0	3.411E+2	9.160E-7	5.510E+4	4.553E+0	8.600E+0
5.950E+0	3.748E+2	9.630E-7	5.792E+4	4.356E+0	8.159E+0
6.000E+0	4.123E+2	1.008E-6	6.063E+4	4.145E+0	7.700E+0
6.050E+0	4.538E+2	1.050E-6	6.316E+4	3.923E+0	7.226E+0
6.100E+0	5.000E+2	1.084E-6	6.520E+4	3.676E+0	6.716E+0
6.150E+0	5.505E+2	1.108E-6	6.665E+4	3.412E+0	6.184E+0
6.200E+0	6.059E+2	1.121E-6	6.743E+4	3.137E+0	5.639E+0
6.250E+0	6.663E+2	1.120E-6	6.737E+4	2.850E+0	5.082E+0
6.300E+0	7.309E+2	1.106E-6	6.653E+4	2.566E+0	4.539E+0
6.350E+0	7.983E+2	1.081E-6	6.502E+4	2.296E+0	4.030E+0
6.400E+0	8.658E+2	1.051E-6	6.322E+4	2.058E+0	3.584E+0
6.450E+0	9.322E+2	1.024E-6	6.159E+4	1.863E+0	3.218E+0
6.500E+0	9.955E+2	9.980E-7	6.003E+4	1.700E+0	2.915E+0
6.550E+0	1.072E+3	9.550E-7	5.744E+4	1.511E+0	2.571E+0
6.600E+0	1.127E+3	9.260E-7	5.570E+4	1.393E+0	2.352E+0
6.650E+0	1.180E+3	8.880E-7	5.341E+4	1.276E+0	2.138E+0
6.700E+0	1.231E+3	8.420E-7	5.065E+4	1.160E+0	1.930E+0
6.750E+0	1.278E+3	7.870E-7	4.734E+4	1.044E+0	1.724E+0
6.800E+0	1.322E+3	7.230E-7	4.349E+4	9.271E-1	1.519E+0
6.850E+0	1.368E+3	6.480E-7	3.898E+4	8.031E-1	1.307E+0
6.900E+0	1.414E+3	5.880E-7	3.537E+4	7.053E-1	1.139E+0
6.950E+0	1.443E+3	5.360E-7	3.224E+4	6.300E-1	1.010E+0
7.000E+0	1.467E+3	4.810E-7	2.893E+4	5.560E-1	8.853E-1
7.050E+0	1.489E+3	4.250E-7	2.556E+4	4.841E-1	7.652E-1
7.100E+0	1.505E+3	3.690E-7	2.220E+4	4.157E-1	6.524E-1
7.150E+0	1.517E+3	3.150E-7	1.895E+4	3.522E-1	5.489E-1
7.200E+0	1.521E+3	2.620E-7	1.576E+4	2.921E-1	4.521E-1
7.250E+0	1.520E+3	2.120E-7	1.275E+4	2.364E-1	3.635E-1
7.300E+0	1.511E+3	1.640E-7	9.865E+3	1.841E-1	2.810E-1
7.350E+0	1.491E+3	1.008E-7	6.063E+3	1.146E-1	1.738E-1
7.400E+0	1.431E+3	6.940E-8	4.174E+3	8.222E-2	1.238E-1
7.450E+0	1.396E+3	4.350E-8	2.617E+3	5.283E-2	7.903E-2
7.500E+0	1.358E+3	2.630E-8	1.582E+3	3.285E-2	4.881E-2
